ScanningMode	2Theta
ScanningType	Continuos Scanning
X-Ray	40kV/40mA
DivSlit	3.0mm
DivH.L.Slit	10mm
SctSlit	open
RecSlit	open
Start	114
Stop	119
Step	0.01
114	83053
114.01	82562
114.02	82323
114.03	82870
114.04	83134
114.05	83118
114.06	82322
114.07	82534
114.08	83037
114.09	82692
114.1	83001
114.11	82857
114.12	83146
114.13	82806
114.14	83115
114.15	83105
114.16	82630
114.17	82635
114.18	82781
114.19	82639
114.2	82756
114.21	82538
114.22	83036
114.23	82972
114.24	83254
114.25	83035
114.26	82820
114.27	82753
114.28	83598
114.29	82901
114.3	82814
114.31	83210
114.32	83203
114.33	83012
114.34	83410
114.35	83188
114.36	82910
114.37	83416
114.38	82459
114.39	83342
114.4	82991
114.41	83058
114.42	82901
114.43	83077
114.44	82973
114.45	83205
114.46	82910
114.47	83442
114.48	82960
114.49	83011
114.5	83256
114.51	83268
114.52	82765
114.53	82642
114.54	82848
114.55	83165
114.56	83285
114.57	83309
114.58	83237
114.59	82887
114.6	82287
114.61	83189
114.62	83977
114.63	83020
114.64	82897
114.65	82989
114.66	82749
114.67	82701
114.68	83024
114.69	82938
114.7	83168
114.71	83075
114.72	83417
114.73	83306
114.74	83187
114.75	82948
114.76	83336
114.77	83078
114.78	83169
114.79	83183
114.8	82796
114.81	82829
114.82	82511
114.83	82951
114.84	83271
114.85	83210
114.86	83341
114.87	83136
114.88	82790
114.89	83607
114.9	82983
114.91	83315
114.92	83232
114.93	82985
114.94	83029
114.95	83297
114.96	83030
114.97	83237
114.98	82772
114.99	83388
115	83152
115.01	82941
115.02	83151
115.03	83256
115.04	83887
115.05	83656
115.06	83475
115.07	82567
115.08	83291
115.09	83571
115.1	83434
115.11	83560
115.12	83706
115.13	83398
115.14	83151
115.15	83965
115.16	83704
115.17	83161
115.18	83280
115.19	83476
115.2	83646
115.21	83475
115.22	83235
115.23	83675
115.24	83999
115.25	83479
115.26	83975
115.27	83674
115.28	84268
115.29	84149
115.3	83975
115.31	84248
115.32	83856
115.33	83660
115.34	84017
115.35	83667
115.36	83394
115.37	84198
115.38	84019
115.39	83997
115.4	84069
115.41	84620
115.42	84312
115.43	84216
115.44	84387
115.45	84625
115.46	83904
115.47	84223
115.48	83967
115.49	84525
115.5	84843
115.51	84495
115.52	84519
115.53	84695
115.54	84217
115.55	85022
115.56	85175
115.57	85270
115.58	84596
115.59	85190
115.6	84707
115.61	85293
115.62	85166
115.63	84913
115.64	85102
115.65	85471
115.66	85449
115.67	85645
115.68	85718
115.69	85744
115.7	85669
115.71	85387
115.72	85667
115.73	86132
115.74	86156
115.75	86350
115.76	86096
115.77	86530
115.78	85847
115.79	86117
115.8	86020
115.81	86065
115.82	86761
115.83	86918
115.84	86917
115.85	86344
115.86	86429
115.87	86961
115.88	86878
115.89	87383
115.9	87762
115.91	87282
115.92	87466
115.93	87324
115.94	87874
115.95	87064
115.96	87559
115.97	87673
115.98	87812
115.99	88072
116	88066
116.01	87928
116.02	87810
116.03	88154
116.04	87815
116.05	88101
116.06	87648
116.07	88540
116.08	88535
116.09	88314
116.1	88572
116.11	88366
116.12	88630
116.13	88730
116.14	89149
116.15	88720
116.16	89195
116.17	88876
116.18	88853
116.19	88847
116.2	89136
116.21	88731
116.22	87982
116.23	89116
116.24	88787
116.25	88947
116.26	88733
116.27	88976
116.28	89153
116.29	89468
116.3	88883
116.31	88738
116.32	89522
116.33	89438
116.34	88795
116.35	88807
116.36	89161
116.37	88549
116.38	89508
116.39	89072
116.4	88910
116.41	88591
116.42	88649
116.43	88548
116.44	88231
116.45	88723
116.46	88370
116.47	88731
116.48	88237
116.49	88591
116.5	88125
116.51	88392
116.52	88690
116.53	88873
116.54	88210
116.55	87992
116.56	88169
116.57	88773
116.58	87863
116.59	88105
116.6	87623
116.61	88352
116.62	87756
116.63	87736
116.64	87451
116.65	87695
116.66	87780
116.67	87471
116.68	86970
116.69	87110
116.7	87238
116.71	88463
116.72	86973
116.73	87033
116.74	86363
116.75	86959
116.76	86906
116.77	86779
116.78	86438
116.79	86420
116.8	86582
116.81	86020
116.82	86664
116.83	86206
116.84	86315
116.85	85994
116.86	85593
116.87	85843
116.88	86234
116.89	85856
116.9	85341
116.91	86200
116.92	85217
116.93	85320
116.94	85847
116.95	85776
116.96	85689
116.97	85200
116.98	85450
116.99	85370
117	85210
117.01	84967
117.02	85510
117.03	85220
117.04	85171
117.05	85330
117.06	85117
117.07	84687
117.08	85056
117.09	84832
117.1	85187
117.11	84650
117.12	84839
117.13	85320
117.14	84488
117.15	84429
117.16	85096
117.17	83920
117.18	84267
117.19	84424
117.2	83941
117.21	84653
117.22	83984
117.23	84348
117.24	84391
117.25	84364
117.26	84326
117.27	83635
117.28	84398
117.29	83869
117.3	83976
117.31	83623
117.32	84181
117.33	83476
117.34	84470
117.35	83801
117.36	84237
117.37	84159
117.38	84007
117.39	83874
117.4	84180
117.41	83848
117.42	83755
117.43	84129
117.44	84322
117.45	84165
117.46	83852
117.47	83960
117.48	83756
117.49	84227
117.5	83397
117.51	84046
117.52	84024
117.53	84232
117.54	83562
117.55	83975
117.56	83831
117.57	83808
117.58	83763
117.59	84118
117.6	83883
117.61	83704
117.62	83692
117.63	83929
117.64	83751
117.65	83806
117.66	83421
117.67	83695
117.68	83788
117.69	83316
117.7	83946
117.71	83106
117.72	83743
117.73	83654
117.74	83799
117.75	84100
117.76	84085
117.77	83892
117.78	84026
117.79	83793
117.8	83430
117.81	83608
117.82	83799
117.83	83764
117.84	84011
117.85	83656
117.86	84009
117.87	83602
117.88	83948
117.89	83510
117.9	84062
117.91	83662
117.92	83488
117.93	84212
117.94	83358
117.95	83936
117.96	83994
117.97	84071
117.98	83549
117.99	83365
118	83548
118.01	82964
118.02	83932
118.03	83576
118.04	83778
118.05	83233
118.06	83224
118.07	83875
118.08	83358
118.09	84008
118.1	84272
118.11	83663
118.12	83636
118.13	83665
118.14	83901
118.15	83375
118.16	83216
118.17	84165
118.18	83668
118.19	83295
118.2	83829
118.21	83510
118.22	83815
118.23	83760
118.24	83904
118.25	83686
118.26	83319
118.27	83839
118.28	83160
118.29	83657
118.3	83820
118.31	83397
118.32	84279
118.33	83496
118.34	83429
118.35	83796
118.36	83285
118.37	83275
118.38	83660
118.39	83558
118.4	83980
118.41	84024
118.42	83841
118.43	84147
118.44	83468
118.45	83483
118.46	83780
118.47	83792
118.48	83873
118.49	83517
118.5	83216
118.51	83620
118.52	83770
118.53	83662
118.54	83691
118.55	83887
118.56	83470
118.57	83583
118.58	83702
118.59	83961
118.6	84183
118.61	83820
118.62	83437
118.63	83467
118.64	83805
118.65	83555
118.66	83720
118.67	83542
118.68	84016
118.69	83541
118.7	83847
118.71	83909
118.72	83811
118.73	83939
118.74	83742
118.75	83440
118.76	83545
118.77	83373
118.78	83657
118.79	83885
118.8	83755
118.81	83733
118.82	83561
118.83	83793
118.84	84275
118.85	83581
118.86	84218
118.87	83534
118.88	84108
118.89	83899
118.9	83556
118.91	83970
118.92	83453
118.93	83537
118.94	83210
118.95	83706
118.96	84028
118.97	83476
118.98	83997
118.99	83597
119	83414
X-Ray	40kV/40mA
DivSlit	3.0mm
DivH.L.Slit	10mm
SctSlit	open
RecSlit	open
Start	114
Stop	119
Step	0.01
114	79710
114.01	79546
114.02	80012
114.03	79545
114.04	79916
114.05	79789
114.06	79749
114.07	80002
114.08	79638
114.09	79957
114.1	79464
114.11	79613
114.12	79591
114.13	80046
114.14	79808
114.15	79560
114.16	79793
114.17	80161
114.18	80006
114.19	79809
114.2	79233
114.21	80059
114.22	79424
114.23	80026
114.24	80091
114.25	80040
114.26	80089
114.27	80149
114.28	79688
114.29	80143
114.3	80127
114.31	80284
114.32	79443
114.33	80151
114.34	80033
114.35	79717
114.36	80547
114.37	80061
114.38	79841
114.39	79888
114.4	80274
114.41	80334
114.42	79584
114.43	80054
114.44	80025
114.45	80285
114.46	79996
114.47	80206
114.48	80643
114.49	79777
114.5	80340
114.51	79914
114.52	79932
114.53	79774
114.54	79927
114.55	80356
114.56	80198
114.57	79201
114.58	80045
114.59	80011
114.6	80118
114.61	79881
114.62	80169
114.63	80165
114.64	79861
114.65	80279
114.66	80012
114.67	79965
114.68	80064
114.69	80410
114.7	80600
114.71	80367
114.72	80275
114.73	79965
114.74	79725
114.75	80061
114.76	80309
114.77	79928
114.78	80043
114.79	80513
114.8	80028
114.81	79759
114.82	80528
114.83	79641
114.84	80276
114.85	80176
114.86	80211
114.87	80618
114.88	80191
114.89	80987
114.9	80190
114.91	80604
114.92	80311
114.93	80188
114.94	80678
114.95	80879
114.96	80382
114.97	80820
114.98	80342
114.99	80780
115	80902
115.01	80810
115.02	80667
115.03	80695
115.04	80195
115.05	80470
115.06	80468
115.07	80302
115.08	80618
115.09	79605
115.1	81156
115.11	80737
115.12	79941
115.13	80551
115.14	80330
115.15	80965
115.16	80632
115.17	80807
115.18	80683
115.19	80367
115.2	80896
115.21	80809
115.22	80778
115.23	80872
115.24	81431
115.25	80939
115.26	80693
115.27	80768
115.28	81084
115.29	81195
115.3	80887
115.31	80654
115.32	81204
115.33	81060
115.34	81139
115.35	81218
115.36	81290
115.37	81500
115.38	80952
115.39	80909
115.4	80279
115.41	81466
115.42	80890
115.43	81053
115.44	81487
115.45	81173
115.46	81416
115.47	81492
115.48	81620
115.49	80810
115.5	81312
115.51	81293
115.52	81876
115.53	81716
115.54	81484
115.55	81287
115.56	81919
115.57	81666
115.58	81651
115.59	81546
115.6	81635
115.61	82417
115.62	81566
115.63	82229
115.64	82260
115.65	81520
115.66	82205
115.67	82331
115.68	82320
115.69	82614
115.7	82579
115.71	82494
115.72	82651
115.73	82917
115.74	82731
115.75	83237
115.76	83211
115.77	82858
115.78	82653
115.79	83330
115.8	83233
115.81	83126
115.82	83557
115.83	83664
115.84	83316
115.85	83494
115.86	83930
115.87	83706
115.88	83198
115.89	83328
115.9	84356
115.91	84411
115.92	84593
115.93	84197
115.94	84298
115.95	84880
115.96	84307
115.97	84232
115.98	84426
115.99	84565
116	85072
116.01	84853
116.02	85060
116.03	85350
116.04	84835
116.05	84659
116.06	84881
116.07	85790
116.08	85465
116.09	85071
116.1	85029
116.11	85786
116.12	85504
116.13	85096
116.14	85159
116.15	85603
116.16	85511
116.17	85624
116.18	85659
116.19	85725
116.2	85757
116.21	85700
116.22	85629
116.23	85824
116.24	85854
116.25	86562
116.26	86041
116.27	85449
116.28	85896
116.29	85925
116.3	85750
116.31	85913
116.32	85682
116.33	85889
116.34	86272
116.35	85988
116.36	85880
116.37	85557
116.38	85689
116.39	86136
116.4	85070
116.41	85643
116.42	84834
116.43	85591
116.44	85414
116.45	85793
116.46	85490
116.47	85290
116.48	85764
116.49	85285
116.5	85146
116.51	84925
116.52	84756
116.53	85108
116.54	84888
116.55	85363
116.56	84528
116.57	84818
116.58	85078
116.59	84835
116.6	84674
116.61	84494
116.62	84612
116.63	84681
116.64	84420
116.65	84571
116.66	84121
116.67	83694
116.68	84565
116.69	83772
116.7	83586
116.71	83556
116.72	84413
116.73	83914
116.74	84299
116.75	83514
116.76	84023
116.77	84053
116.78	83868
116.79	83523
116.8	83654
116.81	83482
116.82	83012
116.83	83392
116.84	83273
116.85	82386
116.86	82744
116.87	82723
116.88	82964
116.89	82170
116.9	82845
116.91	83045
116.92	83129
116.93	83119
116.94	82726
116.95	82879
116.96	83025
116.97	82849
116.98	82755
116.99	81826
117	82629
117.01	82534
117.02	82554
117.03	82258
117.04	82225
117.05	81793
117.06	82001
117.07	81594
117.08	82175
117.09	82042
117.1	82135
117.11	81666
117.12	82218
117.13	82063
117.14	81620
117.15	81765
117.16	81732
117.17	81081
117.18	81808
117.19	81887
117.2	82018
117.21	81779
117.22	81530
117.23	81631
117.24	81591
117.25	81369
117.26	81762
117.27	81175
117.28	81263
117.29	81206
117.3	81575
117.31	81722
117.32	81396
117.33	81614
117.34	80939
117.35	81305
117.36	81012
117.37	80942
117.38	80673
117.39	81060
117.4	81453
117.41	80855
117.42	81083
117.43	81294
117.44	80907
117.45	80604
117.46	81112
117.47	81226
117.48	80766
117.49	80976
117.5	80772
117.51	80916
117.52	81126
117.53	81250
117.54	81400
117.55	80855
117.56	81233
117.57	80538
117.58	80692
117.59	80486
117.6	80769
117.61	80605
117.62	80719
117.63	80615
117.64	80802
117.65	81233
117.66	80883
117.67	80776
117.68	80925
117.69	81075
117.7	80613
117.71	80701
117.72	80871
117.73	81002
117.74	81207
117.75	81173
117.76	81007
117.77	80634
117.78	80701
117.79	80950
117.8	80755
117.81	80647
117.82	81384
117.83	80387
117.84	80867
117.85	81110
117.86	80492
117.87	80360
117.88	80992
117.89	80774
117.9	80744
117.91	80885
117.92	80919
117.93	80755
117.94	81166
117.95	80636
117.96	80970
117.97	80714
117.98	80606
117.99	80922
118	80370
118.01	80701
118.02	81123
118.03	80785
118.04	80458
118.05	80570
118.06	81171
118.07	81106
118.08	81012
118.09	80977
118.1	81288
118.11	81223
118.12	80641
118.13	81113
118.14	80676
118.15	81560
118.16	81362
118.17	81084
118.18	80742
118.19	80468
118.2	80673
118.21	80419
118.22	81248
118.23	80877
118.24	81357
118.25	81108
118.26	81208
118.27	80998
118.28	81354
118.29	80656
118.3	81148
118.31	81476
118.32	80657
118.33	80775
118.34	81088
118.35	81049
118.36	80596
118.37	80790
118.38	81457
118.39	81160
118.4	81033
118.41	80714
118.42	81118
118.43	80850
118.44	80921
118.45	80995
118.46	80594
118.47	81354
118.48	81036
118.49	80790
118.5	81012
118.51	80972
118.52	81000
118.53	81258
118.54	81034
118.55	81425
118.56	80775
118.57	80827
118.58	80653
118.59	81030
118.6	80882
118.61	81343
118.62	80872
118.63	80699
118.64	80969
118.65	81046
118.66	81418
118.67	81367
118.68	80812
118.69	81096
118.7	80982
118.71	80852
118.72	81380
118.73	81209
118.74	81431
118.75	81174
118.76	80920
118.77	81205
118.78	81102
118.79	81068
118.8	81040
118.81	81289
118.82	81305
118.83	80524
118.84	81475
118.85	80852
118.86	81820
118.87	80964
118.88	80802
118.89	81051
118.9	81276
118.91	81402
118.92	80714
118.93	81243
118.94	81785
118.95	81050
118.96	81154
118.97	80954
118.98	80690
118.99	80880
119	80694
X-Ray	40kV/40mA
DivSlit	3.0mm
DivH.L.Slit	10mm
SctSlit	open
RecSlit	open
Start	114
Stop	119
Step	0.01
114	78998
114.01	78605
114.02	78749
114.03	78787
114.04	78791
114.05	78962
114.06	79126
114.07	78964
114.08	79013
114.09	78597
114.1	79006
114.11	78976
114.12	79200
114.13	78640
114.14	79393
114.15	78146
114.16	78796
114.17	78939
114.18	79187
114.19	79541
114.2	78939
114.21	78555
114.22	79270
114.23	78790
114.24	78952
114.25	78986
114.26	79021
114.27	79516
114.28	79483
114.29	79225
114.3	78919
114.31	78727
114.32	78983
114.33	78373
114.34	79084
114.35	79226
114.36	78922
114.37	79183
114.38	79040
114.39	79287
114.4	78794
114.41	78887
114.42	78975
114.43	78987
114.44	78995
114.45	78741
114.46	79022
114.47	78671
114.48	79159
114.49	79017
114.5	79020
114.51	78822
114.52	79650
114.53	78909
114.54	78898
114.55	78638
114.56	78924
114.57	79221
114.58	78954
114.59	78869
114.6	78604
114.61	78953
114.62	79438
114.63	78857
114.64	79156
114.65	79638
114.66	79288
114.67	79335
114.68	79032
114.69	79155
114.7	79506
114.71	78787
114.72	79157
114.73	78893
114.74	79147
114.75	78858
114.76	79109
114.77	79066
114.78	79587
114.79	79267
114.8	79389
114.81	79068
114.82	78727
114.83	79120
114.84	79659
114.85	79509
114.86	79227
114.87	79506
114.88	79071
114.89	78954
114.9	79307
114.91	79068
114.92	79452
114.93	79340
114.94	79531
114.95	79390
114.96	79260
114.97	79672
114.98	79288
114.99	79092
115	79370
115.01	79920
115.02	79719
115.03	79298
115.04	79662
115.05	79564
115.06	79685
115.07	79425
115.08	79437
115.09	79937
115.1	79348
115.11	79487
115.12	79559
115.13	79569
115.14	79700
115.15	79793
115.16	79587
115.17	79496
115.18	79446
115.19	79549
115.2	79563
115.21	79903
115.22	79805
115.23	80234
115.24	79670
115.25	79831
115.26	79708
115.27	79890
115.28	79673
115.29	79682
115.3	80041
115.31	80369
115.32	79895
115.33	80109
115.34	79975
115.35	79811
115.36	79615
115.37	80221
115.38	79893
115.39	80518
115.4	80023
115.41	80335
115.42	79794
115.43	80372
115.44	80567
115.45	80519
115.46	80555
115.47	80357
115.48	80161
115.49	80132
115.5	80002
115.51	80311
115.52	80301
115.53	80675
115.54	80359
115.55	80294
115.56	80554
115.57	80674
115.58	80632
115.59	80440
115.6	80691
115.61	80429
115.62	81047
115.63	80654
115.64	81293
115.65	81016
115.66	81192
115.67	81323
115.68	81191
115.69	81625
115.7	81971
115.71	81217
115.72	81641
115.73	81802
115.74	81860
115.75	81770
115.76	82078
115.77	81928
115.78	81865
115.79	82245
115.8	82515
115.81	82339
115.82	82990
115.83	82211
115.84	82197
115.85	82430
115.86	82643
115.87	82808
115.88	82869
115.89	82745
115.9	83198
115.91	83017
115.92	83214
115.93	83090
115.94	83333
115.95	83843
115.96	83521
115.97	83719
115.98	83422
115.99	83864
116	84056
116.01	83683
116.02	83683
116.03	83975
116.04	84417
116.05	83994
116.06	84238
116.07	84080
116.08	83571
116.09	84166
116.1	84436
116.11	84210
116.12	84963
116.13	84150
116.14	83931
116.15	84398
116.16	84726
116.17	84582
116.18	84623
116.19	84514
116.2	84455
116.21	84655
116.22	84614
116.23	84752
116.24	84399
116.25	84683
116.26	84885
116.27	84525
116.28	84796
116.29	84791
116.3	85040
116.31	84289
116.32	84932
116.33	84199
116.34	84349
116.35	84898
116.36	84356
116.37	84452
116.38	84498
116.39	85173
116.4	84933
116.41	84547
116.42	84177
116.43	84845
116.44	84798
116.45	84588
116.46	83859
116.47	84838
116.48	83801
116.49	83935
116.5	84575
116.51	83743
116.52	83970
116.53	84318
116.54	84056
116.55	84208
116.56	84172
116.57	83087
116.58	83674
116.59	83659
116.6	84016
116.61	83446
116.62	83643
116.63	83364
116.64	83306
116.65	83513
116.66	83018
116.67	83681
116.68	83793
116.69	83417
116.7	83238
116.71	82819
116.72	82853
116.73	82802
116.74	82963
116.75	82461
116.76	83168
116.77	82537
116.78	82488
116.79	82635
116.8	82088
116.81	82185
116.82	81930
116.83	81873
116.84	82343
116.85	82169
116.86	82051
116.87	81776
116.88	82293
116.89	82062
116.9	81407
116.91	81409
116.92	81758
116.93	81545
116.94	81329
116.95	82107
116.96	81691
116.97	81659
116.98	81118
116.99	81457
117	81148
117.01	81057
117.02	81795
117.03	81489
117.04	81197
117.05	80647
117.06	81347
117.07	81062
117.08	81161
117.09	81116
117.1	81195
117.11	80909
117.12	81025
117.13	80858
117.14	80848
117.15	80247
117.16	80408
117.17	80661
117.18	80275
117.19	80394
117.2	80758
117.21	80522
117.22	80550
117.23	80426
117.24	80502
117.25	80175
117.26	80557
117.27	80127
117.28	80598
117.29	80228
117.3	80876
117.31	80051
117.32	80084
117.33	80460
117.34	79898
117.35	79741
117.36	80084
117.37	80639
117.38	80350
117.39	79959
117.4	79860
117.41	80155
117.42	80109
117.43	80399
117.44	80031
117.45	79562
117.46	79945
117.47	79997
117.48	79809
117.49	79789
117.5	80185
117.51	80082
117.52	80114
117.53	80073
117.54	79901
117.55	80335
117.56	80129
117.57	80273
117.58	80522
117.59	79632
117.6	80338
117.61	80363
117.62	80368
117.63	79952
117.64	80412
117.65	79805
117.66	79717
117.67	79838
117.68	80061
117.69	79581
117.7	79984
117.71	80410
117.72	80101
117.73	79825
117.74	79825
117.75	79623
117.76	79774
117.77	80198
117.78	79883
117.79	80417
117.8	80204
117.81	80118
117.82	79558
117.83	79667
117.84	80201
117.85	80430
117.86	80472
117.87	80073
117.88	79551
117.89	79951
117.9	79246
117.91	80264
117.92	80331
117.93	80187
117.94	79854
117.95	80351
117.96	79856
117.97	80098
117.98	80087
117.99	79793
118	80276
118.01	79963
118.02	80123
118.03	79740
118.04	80539
118.05	79782
118.06	80073
118.07	80300
118.08	79843
118.09	79958
118.1	80293
118.11	79878
118.12	79742
118.13	79681
118.14	80204
118.15	79912
118.16	79949
118.17	80186
118.18	79576
118.19	80477
118.2	79973
118.21	79906
118.22	80104
118.23	80187
118.24	80503
118.25	80682
118.26	80019
118.27	80163
118.28	80115
118.29	79958
118.3	79699
118.31	79859
118.32	79899
118.33	80544
118.34	80106
118.35	80162
118.36	80170
118.37	80117
118.38	80048
118.39	80184
118.4	80020
118.41	79695
118.42	79974
118.43	79649
118.44	80424
118.45	79827
118.46	80525
118.47	80476
118.48	80399
118.49	80441
118.5	79843
118.51	80311
118.52	80276
118.53	80272
118.54	80265
118.55	80291
118.56	79737
118.57	79703
118.58	80142
118.59	79831
118.6	80386
118.61	80058
118.62	80415
118.63	79806
118.64	80318
118.65	79998
118.66	80365
118.67	80038
118.68	80209
118.69	79738
118.7	80156
118.71	79980
118.72	80718
118.73	80321
118.74	80123
118.75	79891
118.76	80464
118.77	80336
118.78	79482
118.79	80552
118.8	80529
118.81	80016
118.82	80451
118.83	80326
118.84	80317
118.85	80084
118.86	80539
118.87	80376
118.88	80310
118.89	80214
118.9	80026
118.91	80159
118.92	80093
118.93	80433
118.94	80593
118.95	80364
118.96	80153
118.97	79710
118.98	80313
118.99	80694
119	80092
X-Ray	40kV/40mA
DivSlit	3.0mm
DivH.L.Slit	10mm
SctSlit	open
RecSlit	open
Start	114
Stop	119
Step	0.01
114	77522
114.01	77710
114.02	77469
114.03	77776
114.04	78024
114.05	77718
114.06	78762
114.07	78103
114.08	78441
114.09	77645
114.1	78022
114.11	77816
114.12	78360
114.13	78114
